// T					Q
0.00          2.2825483E+01
300.00        2.3052873E+01
600.00        2.3761736E+01
900.00        2.4954615E+01
1200.00       2.6630912E+01
1500.00       2.8787229E+01
1800.00       3.1417441E+01
2100.00       3.4512638E+01
2400.00       3.8061221E+01
2700.00       4.2048745E+01
3000.00       4.6457802E+01
3300.00       5.1267879E+01
3600.00       5.6455025E+01
3900.00       6.1991563E+01
4200.00       6.7845716E+01
4500.00       7.3981241E+01
4800.00       8.0357020E+01
5100.00       8.6926714E+01
5400.00       9.3638420E+01
5700.00       1.0043453E+02
6000.00       1.0725173E+02
6300.00       1.1402123E+02
6600.00       1.2066939E+02
6900.00       1.2711856E+02
7200.00       1.3328843E+02
7500.00       1.3909809E+02
7800.00       1.4446831E+02
8100.00       1.4932448E+02
8400.00       1.5359966E+02
8700.00       1.5723782E+02
9000.00       1.6019674E+02
9300.00       1.6245015E+02
9600.00       1.6398883E+02
9900.00       1.6482058E+02
10200.00      1.6496924E+02
10500.00      1.6447339E+02
10800.00      1.6338430E+02
11100.00      1.6176309E+02
11400.00      1.5967559E+02
11700.00      1.5718642E+02
12000.00      1.5435332E+02
12300.00      1.5122350E+02
12600.00      1.4783750E+02
12900.00      1.4423665E+02
13200.00      1.4046890E+02
13500.00      1.3659158E+02
13800.00      1.3267144E+02
14100.00      1.2877948E+02
14400.00      1.2498419E+02
14700.00      1.2134382E+02
15000.00      1.1789815E+02
15300.00      1.1466199E+02
15600.00      1.1162182E+02
15900.00      1.0873998E+02
16200.00      1.0596751E+02
16500.00      1.0325776E+02
16800.00      1.0057655E+02
17100.00      9.7905872E+01
17400.00      9.5239306E+01
17700.00      9.2573715E+01
18000.00      8.9902384E+01
18300.00      8.7212774E+01
18600.00      8.4490068E+01
18900.00      8.1725364E+01
19200.00      7.8922797E+01
19500.00      7.6100077E+01
19800.00      7.3284215E+01
20100.00      7.0507299E+01
20400.00      6.7804055E+01
20700.00      6.5209447E+01
21000.00      6.2754843E+01
21300.00      6.0463729E+01
21600.00      5.8349240E+01
21900.00      5.6413988E+01
22200.00      5.4651274E+01
22500.00      5.3046720E+01
22800.00      5.1579987E+01
23100.00      5.0227225E+01
23400.00      4.8964254E+01
23700.00      4.7769753E+01
24000.00      4.6626801E+01
24300.00      4.5522890E+01
24600.00      4.4449067E+01
24900.00      4.3399011E+01
25200.00      4.2368721E+01
25500.00      4.1356394E+01
25800.00      4.0362258E+01
26100.00      3.9388235E+01
26400.00      3.8437369E+01
26700.00      3.7513263E+01
27000.00      3.6619676E+01
27300.00      3.5760363E+01
27600.00      3.4939231E+01
27900.00      3.4160639E+01
28200.00      3.3429413E+01
28500.00      3.2750456E+01
28800.00      3.2127992E+01
29100.00      3.1564600E+01
29400.00      3.1060326E+01
29700.00      3.0612137E+01
30000.00      3.0213812E+01
30300.00      2.9856309E+01
30600.00      2.9528482E+01
30900.00      2.9218196E+01
31200.00      2.8913536E+01
31500.00      2.8603907E+01
31800.00      2.8280980E+01
32100.00      2.7939379E+01
32400.00      2.7577056E+01
32700.00      2.7195340E+01
33000.00      2.6798679E+01
33300.00      2.6394056E+01
33600.00      2.5990238E+01
33900.00      2.5597018E+01
34200.00      2.5224477E+01
34500.00      2.4882311E+01
34800.00      2.4579309E+01
35100.00      2.4322975E+01
35400.00      2.4119250E+01
35700.00      2.3972267E+01
36000.00      2.3884245E+01
36300.00      2.3855349E+01
36600.00      2.3883527E+01
36900.00      2.3964390E+01
37200.00      2.4091348E+01
37500.00      2.4256353E+01
37800.00      2.4449971E+01
38100.00      2.4661413E+01
38400.00      2.4878914E+01
38700.00      2.5090328E+01
39000.00      2.5283815E+01
39300.00      2.5448550E+01
39600.00      2.5575422E+01
39900.00      2.5657614E+01
40200.00      2.5691014E+01
40500.00      2.5674456E+01
40800.00      2.5609810E+01
41100.00      2.5501934E+01
41400.00      2.5358589E+01
41700.00      2.5190129E+01
42000.00      2.5008345E+01
42300.00      2.4824509E+01
42600.00      2.4648445E+01
42900.00      2.4487833E+01
43200.00      2.4347854E+01
43500.00      2.4231185E+01
43800.00      2.4138275E+01
44100.00      2.4067840E+01
44400.00      2.4017451E+01
44700.00      2.3984104E+01
45000.00      2.3964674E+01
45300.00      2.3956230E+01
45600.00      2.3956198E+01
45900.00      2.3962418E+01
46200.00      2.3973141E+01
46500.00      2.3986992E+01
46800.00      2.4002923E+01
47100.00      2.4020171E+01
47400.00      2.4038205E+01
47700.00      2.4056675E+01
48000.00      2.4075363E+01
48300.00      2.4094146E+01
48600.00      2.4112959E+01
48900.00      2.4131776E+01
49200.00      2.4150586E+01
49500.00      2.4169386E+01
49800.00      2.4188175E+01
50100.00      2.4206954E+01
50400.00      2.4225723E+01
50700.00      2.4244481E+01
51000.00      2.4263229E+01
51300.00      2.4281967E+01
51600.00      2.4300694E+01
51900.00      2.4319410E+01
52200.00      2.4338116E+01
52500.00      2.4356812E+01
52800.00      2.4375498E+01
53100.00      2.4394173E+01
53400.00      2.4412838E+01
53700.00      2.4431492E+01
54000.00      2.4450136E+01
